timestamps,TP9,AF7,AF8,TP10,Right AUX
1732270584.698,-61.035,925.293,294.434,134.766,0.000
1732270584.702,-41.016,292.969,-133.789,-92.285,0.000
1732270584.706,31.738,-350.586,-443.359,-123.047,0.000
1732270584.710,86.914,20.508,-41.016,50.293,0.000
1732270584.714,104.492,719.238,347.168,223.633,0.000
1732270584.718,134.766,563.477,231.445,203.125,0.000
1732270584.722,149.902,-427.246,-270.508,-27.344,0.000
1732270584.726,137.207,-587.402,-344.727,-186.035,0.000
1732270584.729,184.570,281.738,197.754,13.672,0.000
1732270584.733,241.699,664.551,364.258,272.949,0.000
1732270584.737,235.840,673.340,283.203,250.488,0.000
1732270584.741,216.797,357.910,29.297,-7.324,0.000
1732270584.745,251.465,7.324,-236.328,-157.715,0.000
1732270584.749,271.973,45.898,-81.543,20.508,0.000
1732270584.753,274.414,526.855,258.789,231.445,0.000
1732270584.757,227.539,996.094,380.371,234.863,0.000
1732270584.761,129.883,570.312,102.539,29.297,0.000
1732270584.765,120.117,-279.785,-295.410,-117.188,0.000
1732270584.769,115.723,-276.367,-53.711,-8.301,0.000
1732270584.773,119.141,569.824,421.875,182.129,0.000
1732270584.776,120.605,-950.195,477.539,246.094,0.000
1732270584.780,101.074,312.500,91.797,60.547,0.000
1732270584.784,49.316,-101.562,-6.348,-196.777,0.000
1732270584.788,60.059,497.070,344.727,-114.258,0.000
1732270584.792,30.762,852.051,420.410,176.758,0.000
1732270584.796,-80.078,963.379,426.270,259.766,0.000
1732270584.800,-158.203,823.242,313.965,20.996,0.000
1732270584.804,-218.750,495.605,66.406,-212.402,0.000
1732270584.808,-186.523,354.004,49.316,-119.629,0.000
1732270584.812,-183.594,559.082,272.949,124.512,0.000
1732270584.816,-242.188,947.754,390.137,199.707,0.000
1732270584.820,-313.477,830.566,213.379,-8.301,0.000
1732270584.823,-352.539,96.680,-227.539,-171.387,0.000
1732270584.827,-351.074,-188.965,-243.164,-125.977,0.000
1732270584.831,-435.547,638.184,324.707,7.324,0.000
1732270584.835,-460.938,-934.570,448.730,159.180,0.000
1732270584.839,-455.078,720.703,197.266,29.297,0.000
1732270584.843,-650.879,343.750,-83.008,-378.418,0.000
1732270584.847,-604.980,472.656,-160.645,-398.438,0.000
1732270584.851,-377.930,846.191,141.113,84.473,0.000
1732270584.855,-443.848,991.211,358.887,361.328,0.000
1732270584.859,-552.734,932.129,204.102,208.008,0.000
1732270584.863,-595.215,605.957,-187.012,-110.352,0.000
1732270584.866,-465.820,590.820,-284.668,-201.660,0.000
1732270584.870,-190.918,513.672,-157.715,68.848,0.000
1732270584.874,-73.730,639.648,137.695,187.988,0.000
1732270584.878,-65.918,-992.676,284.180,56.641,0.000
1732270584.882,28.320,630.371,-150.879,-117.188,0.000
1732270584.886,145.020,331.543,-303.223,-244.629,0.000
1732270584.890,236.328,706.055,74.707,-74.219,0.000
1732270584.894,296.875,988.281,358.887,152.344,0.000
1732270584.898,296.387,973.145,294.922,137.207,0.000
1732270584.902,254.883,741.699,-104.004,-94.727,0.000
1732270584.906,269.531,341.797,-437.500,-234.863,0.000
1732270584.909,266.113,571.289,-228.516,-44.922,0.000
1732270584.913,263.184,933.105,13.672,221.680,0.000
1732270584.917,196.289,909.668,-56.152,238.770,0.000
1732270584.921,220.215,752.441,-278.809,-15.137,0.000
1732270584.925,429.688,415.527,-502.441,-158.691,0.000
1732270584.929,376.953,533.203,-458.984,17.578,0.000
1732270584.933,-3.418,891.113,-240.723,265.625,0.000
1732270584.937,-475.586,994.629,-153.809,282.715,0.000
1732270584.941,-718.750,952.637,-355.469,39.062,0.000
1732270584.945,-515.625,593.262,-505.371,-158.203,0.000
1732270584.949,-161.133,609.375,-286.621,-22.461,0.000
1732270584.952,95.703,916.992,110.352,243.164,0.000
1732270584.956,182.129,-934.082,293.945,273.926,0.000
1732270584.960,249.512,511.719,-155.762,116.699,0.000
1732270584.964,260.742,-16.113,-488.281,-98.633,0.000
1732270584.968,224.121,587.402,-179.688,-86.914,0.000
1732270584.972,143.066,919.434,137.695,168.457,0.000
1732270584.976,29.297,955.078,328.613,284.668,0.000
1732270584.980,-36.621,932.129,149.414,99.121,0.000
1732270584.984,-101.074,678.711,-220.703,-115.234,0.000
1732270584.988,-9.766,398.438,-288.086,-48.828,0.000
1732270584.992,39.062,563.477,41.992,178.711,0.000
1732270584.995,-39.551,966.797,348.633,275.391,0.000
1732270584.999,-76.172,848.145,115.234,117.676,0.000
1732270585.003,-51.270,154.785,-375.000,-99.121,0.000
1732270585.007,3.418,-265.137,-430.664,-104.492,0.000
1732270585.011,-26.855,514.648,139.160,73.242,0.000
1732270585.015,-46.875,-931.152,439.453,253.906,0.000
1732270585.019,-48.340,810.547,135.742,180.176,0.000
1732270585.023,-68.848,472.168,-270.996,-65.430,0.000
1732270585.027,-37.109,395.020,-310.059,-120.117,0.000
1732270585.031,-11.719,748.535,78.613,113.281,0.000
1732270585.035,21.484,874.512,276.367,301.758,0.000
1732270585.038,-7.324,912.598,215.820,185.547,0.000
1732270585.042,-59.570,684.082,-110.352,-71.777,0.000
1732270585.046,-22.949,233.398,-373.047,-145.996,0.000
1732270585.050,23.926,150.391,-245.605,98.633,0.000
1732270585.054,8.789,508.789,85.449,270.996,0.000
1732270585.058,-24.902,-952.148,369.629,159.180,0.000
1732270585.062,-22.461,793.457,19.531,-45.410,0.000
1732270585.065,-14.648,388.184,-316.406,-160.645,0.000
1732270585.069,9.766,713.867,35.645,12.207,0.000
1732270585.074,40.039,-991.699,413.574,225.586,0.000
1732270585.077,72.266,957.031,318.848,229.004,0.000
1732270585.081,105.469,704.102,-28.320,-9.766,0.000
1732270585.085,118.164,463.867,-204.102,-198.242,0.000
1732270585.089,138.672,739.258,110.352,-42.480,0.000
1732270585.093,161.133,958.984,321.777,205.566,0.000
1732270585.097,95.703,766.602,242.676,219.238,0.000
1732270585.101,-40.527,676.270,125.488,-82.031,0.000
1732270585.105,-98.633,455.078,-135.742,-258.301,0.000
1732270585.108,-84.473,453.125,-28.809,-105.469,0.000
1732270585.112,-163.574,841.797,315.918,87.402,0.000
1732270585.116,-308.105,-996.094,424.316,130.371,0.000
1732270585.120,-237.305,927.734,169.922,-53.223,0.000
1732270585.124,-87.891,414.551,-282.715,-248.047,0.000
1732270585.128,-36.133,474.121,-107.422,-177.734,0.000
1732270585.132,30.273,963.867,346.680,70.312,0.000
1732270585.136,82.031,-980.469,399.902,177.246,0.000
1732270585.140,92.285,695.801,97.168,-12.207,0.000
1732270585.144,70.312,165.039,-261.230,-238.770,0.000
1732270585.147,46.387,432.617,-53.223,-210.449,0.000
1732270585.151,59.082,938.477,327.148,63.965,0.000
1732270585.155,41.016,829.102,279.297,189.453,0.000
1732270585.159,19.531,797.363,162.598,-47.363,0.000
1732270585.163,-15.137,513.184,-107.422,-234.863,0.000
1732270585.167,-62.012,257.324,-227.539,-197.266,0.000
1732270585.171,-3.418,699.707,176.758,26.855,0.000
1732270585.175,-13.672,969.727,422.363,166.504,0.000
1732270585.179,-75.195,-992.676,291.992,23.438,0.000
1732270585.183,-88.867,661.133,-122.559,-205.566,0.000
1732270585.187,-65.430,186.035,-336.426,-241.699,0.000
1732270585.191,-63.965,609.863,94.727,-34.668,0.000
1732270585.194,-106.445,-961.914,425.293,118.652,0.000
1732270585.198,-123.535,881.348,257.324,45.410,0.000
1732270585.202,-183.594,379.883,-170.898,-178.711,0.000
1732270585.206,-246.094,437.988,-191.406,-293.945,0.000
1732270585.210,-183.105,859.863,208.984,-68.359,0.000
1732270585.214,-145.996,943.359,364.746,133.789,0.000
1732270585.218,-137.695,963.379,278.809,106.445,0.000
1732270585.222,-110.840,848.145,11.719,-138.672,0.000
1732270585.226,-60.547,600.586,-225.098,-248.535,0.000
1732270585.230,-31.738,595.703,-50.293,-33.691,0.000
1732270585.234,-6.836,843.750,253.418,176.270,0.000
1732270585.237,-37.109,993.652,348.633,176.270,0.000
1732270585.241,-104.492,890.137,158.203,-59.570,0.000
1732270585.245,-30.273,76.660,-325.684,-173.340,0.000
1732270585.249,-41.016,164.062,-66.406,-27.344,0.000
1732270585.253,-105.957,-985.840,465.820,152.344,0.000
1732270585.257,-73.242,983.398,343.262,205.078,0.000
1732270585.261,-82.031,755.371,54.688,13.184,0.000
1732270585.265,-48.340,522.949,-159.180,-146.484,0.000
1732270585.269,12.695,695.801,18.555,-24.902,0.000
1732270585.273,53.711,940.918,284.180,212.402,0.000
1732270585.277,66.895,-995.605,375.488,281.738,0.000
1732270585.280,87.402,748.047,104.492,66.895,0.000
1732270585.284,83.984,246.094,-301.758,-144.531,0.000
1732270585.288,103.516,106.934,-254.395,-25.879,0.000
1732270585.292,124.512,363.281,76.172,214.844,0.000
1732270585.296,52.734,914.551,390.137,247.070,0.000
1732270585.300,107.422,981.934,228.027,82.520,0.000
1732270585.304,177.246,421.875,-231.934,-86.426,0.000
1732270585.308,83.984,412.109,-206.543,-29.785,0.000
1732270585.312,-44.922,919.922,226.074,190.918,0.000
1732270585.316,-64.453,996.094,390.625,298.340,0.000
1732270585.320,-38.574,819.336,148.926,131.348,0.000
1732270585.323,-9.766,514.648,-182.617,-107.422,0.000
1732270585.327,81.543,229.980,-255.371,-77.637,0.000
1732270585.331,112.305,564.453,125.977,168.457,0.000
1732270585.335,127.930,708.008,283.691,333.008,0.000
1732270585.339,142.090,587.402,173.828,166.016,0.000
1732270585.343,116.699,708.008,91.309,-125.977,0.000
1732270585.347,129.395,383.789,-131.348,-115.723,0.000
1732270585.351,114.746,577.148,146.973,132.324,0.000
1732270585.355,94.238,962.402,419.434,279.785,0.000
1732270585.359,30.762,-983.398,325.684,178.223,0.000
1732270585.363,2.930,581.055,-92.285,-35.156,0.000
1732270585.366,20.020,96.191,-333.496,-104.492,0.000
1732270585.370,32.715,559.082,103.027,87.402,0.000
1732270585.374,82.031,-989.746,382.324,289.062,0.000
1732270585.378,92.285,834.961,217.773,250.977,0.000
1732270585.382,72.266,-2.930,-240.723,14.648,0.000
1732270585.386,41.016,-78.613,-280.762,-168.945,0.000
1732270585.390,45.410,470.215,57.129,32.715,0.000
1732270585.394,45.898,760.742,258.789,302.246,0.000
1732270585.397,40.527,985.352,328.125,270.996,0.000
1732270585.402,0.000,794.434,81.055,7.812,0.000
1732270585.406,0.000,431.641,-215.820,-113.770,0.000
1732270585.409,0.000,457.520,-63.965,74.219,0.000
1732270585.413,0.000,825.195,300.781,273.438,0.000
1732270585.417,0.000,-980.957,350.586,271.973,0.000
1732270585.421,0.000,689.941,-56.641,74.707,0.000
1732270585.425,0.000,-260.254,-465.820,-38.086,0.000
1732270585.429,0.000,-90.820,-166.504,41.016,0.000
1732270585.433,0.000,935.059,362.305,207.520,0.000
1732270585.437,0.000,-992.676,354.492,313.477,0.000
1732270585.440,0.000,769.531,54.199,99.121,0.000
1732270585.444,0.000,350.586,-295.410,-127.930,0.000
1732270585.448,46.387,472.656,-136.719,-31.250,0.000
1732270585.452,87.891,926.270,246.582,209.961,0.000
1732270585.456,102.539,978.516,335.449,280.762,0.000
1732270585.460,60.547,839.844,110.352,65.430,0.000
1732270585.464,38.086,457.031,-305.176,-119.629,0.000
1732270585.468,75.195,160.645,-353.516,-20.508,0.000
1732270585.472,109.863,218.750,-105.469,200.684,0.000
1732270585.476,25.879,776.367,292.480,250.488,0.000
1732270585.479,-7.324,991.211,243.652,102.051,0.000
1732270585.483,20.020,370.117,-267.578,-99.609,0.000
1732270585.487,74.707,253.418,-278.809,-81.543,0.000
1732270585.491,85.938,835.449,212.891,146.973,0.000
1732270585.495,43.945,-975.586,413.574,266.113,0.000
1732270585.499,19.043,776.367,81.543,140.625,0.000
1732270585.503,-19.531,237.305,-346.680,-100.586,0.000
1732270585.507,-22.461,275.879,-297.852,-151.855,0.000
1732270585.511,-1.953,793.457,118.164,83.008,0.000
1732270585.515,11.230,913.574,263.184,292.480,0.000
1732270585.519,10.254,864.746,98.145,164.062,0.000
1732270585.523,-43.945,720.703,-122.070,-103.027,0.000
1732270585.526,1.465,426.758,-314.941,-126.465,0.000
1732270585.530,29.297,301.758,-193.848,122.070,0.000
1732270585.534,-5.859,700.195,219.238,268.555,0.000
1732270585.538,-10.254,-934.570,333.984,166.504,0.000
1732270585.543,-4.883,661.621,-143.555,-48.340,0.000
1732270585.547,25.391,218.262,-360.840,-145.996,0.000
1732270585.550,33.691,624.512,28.809,40.039,0.000
1732270585.554,43.945,-992.188,338.379,245.117,0.000
1732270585.558,63.477,928.223,189.453,225.098,0.000
1732270585.562,23.926,463.379,-235.840,-16.113,0.000
1732270585.566,-24.414,30.273,-426.270,-172.363,0.000
1732270585.570,8.301,341.309,-99.609,-0.488,0.000
1732270585.574,63.477,761.230,229.004,248.535,0.000
1732270585.577,46.875,765.137,154.297,259.277,0.000
1732270585.581,-13.184,748.047,-20.996,-36.133,0.000
1732270585.585,-2.930,529.297,-309.570,-186.523,0.000
1732270585.590,40.039,542.480,-294.922,-14.160,0.000
1732270585.593,64.453,852.051,78.125,205.078,0.000
1732270585.597,18.555,-1000.000,299.316,234.375,0.000
1732270585.601,-46.875,914.551,-82.520,1.465,0.000
1732270585.605,-47.852,416.016,-461.914,-165.039,0.000
1732270585.609,-85.449,239.746,-397.949,-46.387,0.000
1732270585.613,-119.141,765.137,20.508,153.320,0.000
1732270585.617,-141.602,-978.027,228.027,240.723,0.000
1732270585.621,-168.945,765.625,-161.133,23.438,0.000
1732270585.624,-203.125,544.922,-415.039,-211.426,0.000
1732270585.628,-178.711,694.336,-331.543,-120.117,0.000
1732270585.632,-140.137,952.637,20.020,137.207,0.000
1732270585.636,-150.879,756.836,79.590,294.922,0.000
1732270585.640,-216.309,759.766,-104.492,63.965,0.000
1732270585.644,-260.742,838.867,-254.395,-227.051,0.000
1732270585.648,-159.668,629.883,-379.395,-150.879,0.000
1732270585.652,-137.207,774.902,-33.691,94.727,0.000
1732270585.656,-194.336,973.145,305.664,202.148,0.000
1732270585.660,-220.703,968.750,41.992,11.719,0.000
1732270585.664,-253.906,463.867,-412.598,-223.145,0.000
1732270585.667,-249.023,43.457,-468.262,-241.211,0.000
1732270585.671,-252.930,678.711,25.391,-56.152,0.000
1732270585.675,-261.719,-963.867,359.375,107.422,0.000
1732270585.679,-244.629,897.949,113.281,-2.930,0.000
1732270585.683,-251.465,725.586,-282.227,-239.746,0.000
1732270585.687,-174.805,596.191,-327.148,-293.457,0.000
1732270585.691,-28.809,818.848,88.867,-50.293,0.000
1732270585.695,7.812,975.586,377.930,143.066,0.000
1732270585.699,-38.574,970.703,246.094,59.570,0.000
1732270585.703,-62.988,609.863,-197.266,-151.367,0.000
1732270585.707,-33.203,327.148,-395.996,-239.258,0.000
1732270585.710,75.195,335.449,-250.977,6.348,0.000
1732270585.714,76.172,611.816,96.680,198.242,0.000
1732270585.718,4.883,-953.613,357.910,92.285,0.000
1732270585.722,19.531,774.902,-88.867,-115.723,0.000
1732270585.726,60.547,281.738,-416.504,-220.215,0.000
1732270585.730,119.629,525.391,-125.000,-57.617,0.000
1732270585.734,119.629,963.867,281.250,146.484,0.000
1732270585.738,80.566,981.934,287.598,159.180,0.000
1732270585.742,91.797,775.879,-155.273,-79.102,0.000
1732270585.746,100.586,464.844,-446.289,-229.004,0.000
1732270585.750,120.117,513.672,-262.207,-59.570,0.000
1732270585.753,153.809,843.262,83.984,163.574,0.000
1732270585.757,97.168,818.848,129.395,191.406,0.000
1732270585.761,-3.418,825.684,-14.648,-90.332,0.000
1732270585.765,8.301,690.430,-238.770,-278.320,0.000
1732270585.769,43.945,588.379,-231.934,-128.906,0.000
1732270585.773,46.875,848.633,154.297,103.516,0.000
1732270585.777,39.062,-998.047,368.164,160.156,0.000
1732270585.781,-17.578,945.312,82.031,-55.176,0.000
1732270585.785,-65.918,345.703,-376.953,-244.141,0.000
1732270585.789,-46.875,330.078,-222.168,-198.242,0.000
1732270585.792,-19.043,920.410,259.277,19.043,0.000
1732270585.796,10.742,-917.969,376.465,130.859,0.000
1732270585.800,45.410,492.188,-67.871,-32.227,0.000
1732270585.804,37.109,-71.289,-411.133,-264.160,0.000
1732270585.808,53.223,527.344,-74.219,-270.020,0.000
1732270585.812,103.516,893.555,211.426,6.836,0.000
1732270585.816,57.617,959.961,346.680,152.832,0.000
1732270585.820,51.758,919.922,239.746,-13.184,0.000
1732270585.824,70.312,600.098,-108.398,-262.695,0.000
1732270585.828,88.379,278.320,-206.055,-244.141,0.000
1732270585.832,104.492,537.109,182.617,8.789,0.000
1732270585.835,92.285,979.004,465.332,142.090,0.000
1732270585.839,69.824,933.594,326.660,20.996,0.000
1732270585.843,17.578,355.957,-58.105,-190.430,0.000
1732270585.847,-6.836,-351.562,-291.504,-213.867,0.000
1732270585.851,1.953,218.750,166.016,-26.367,0.000
1732270585.855,40.527,-989.258,470.703,132.812,0.000
1732270585.859,11.719,868.164,306.152,71.777,0.000
1732270585.863,-46.387,572.266,81.543,-165.527,0.000
1732270585.866,-25.391,523.926,71.289,-229.004,0.000
1732270585.871,19.531,793.457,337.891,24.414,0.000
1732270585.874,25.879,940.430,386.230,233.398,0.000
1732270585.878,-15.625,974.121,339.355,169.434,0.000
1732270585.882,-46.387,779.785,167.480,-83.984,0.000
1732270585.886,-29.297,393.555,-27.344,-196.777,0.000
1732270585.890,48.340,259.766,114.746,48.340,0.000
1732270585.894,36.133,641.113,358.887,255.859,0.000
1732270585.898,-50.781,-939.941,429.199,207.031,0.000
1732270585.902,-68.359,685.547,112.793,16.602,0.000
1732270585.905,-59.570,39.062,-239.746,-108.887,0.000
1732270585.909,-85.938,390.137,93.262,27.832,0.000
1732270585.913,-27.344,981.445,438.477,267.090,0.000
1732270585.918,-4.395,966.797,338.379,340.820,0.000
1732270585.921,-60.547,711.426,57.617,116.211,0.000
1732270585.925,-43.945,368.652,-267.090,-84.961,0.000
1732270585.929,19.043,540.527,-114.258,59.082,0.000
1732270585.933,95.703,876.953,209.473,325.195,0.000
1732270585.937,128.418,880.859,270.508,412.598,0.000
1732270585.941,151.855,613.281,41.016,212.402,0.000
1732270585.945,179.199,243.652,-317.871,-20.508,0.000
1732270585.948,227.539,158.203,-309.082,89.844,0.000
1732270585.952,235.352,406.250,38.574,340.820,0.000
1732270585.956,161.133,940.918,347.168,379.395,0.000
1732270585.960,139.160,972.168,104.492,179.199,0.000
1732270585.964,137.207,406.738,-317.383,-23.438,0.000
1732270585.968,173.340,293.945,-336.914,23.926,0.000
1732270585.972,229.980,834.961,102.539,252.930,0.000
1732270585.976,204.102,-980.469,368.164,376.465,0.000
1732270585.980,216.309,764.160,68.848,226.074,0.000
1732270585.984,239.258,186.035,-357.910,-13.672,0.000
1732270585.988,161.621,237.793,-313.477,-38.086,0.000
1732270585.992,70.801,878.418,176.270,192.871,0.000
1732270585.995,10.254,754.395,197.754,410.645,0.000
1732270585.999,-39.551,698.730,98.145,253.906,0.000
1732270586.003,-17.578,768.066,62.012,-50.781,0.000
1732270586.007,131.836,327.148,-132.324,-45.410,0.000
1732270586.011,240.723,569.336,185.547,187.012,0.000
1732270586.015,267.578,945.801,413.086,315.430,0.000
1732270586.019,250.000,-990.723,358.398,191.895,0.000
1732270586.023,264.648,583.008,48.340,-32.227,0.000
1732270586.027,272.949,156.738,-129.883,-108.887,0.000
1732270586.031,189.941,486.328,208.008,99.121,0.000
1732270586.035,136.230,932.617,420.410,277.344,0.000
1732270586.038,125.488,937.500,308.105,207.031,0.000
1732270586.042,71.289,246.582,-118.164,-69.336,0.000
1732270586.046,89.844,164.551,-136.719,-213.379,0.000
1732270586.050,195.801,754.883,308.594,20.508,0.000
1732270586.054,214.844,927.246,374.023,250.977,0.000
1732270586.058,201.172,964.355,334.961,238.281,0.000
1732270586.062,119.141,808.105,167.480,3.418,0.000
1732270586.066,94.238,398.438,-135.254,-110.840,0.000
1732270586.070,166.992,350.098,6.836,78.613,0.000
1732270586.074,166.504,787.598,324.219,306.641,0.000
1732270586.078,173.340,-984.375,374.023,355.957,0.000
1732270586.082,150.879,736.816,110.840,119.629,0.000
1732270586.086,143.066,-120.605,-345.703,-9.766,0.000
1732270586.089,153.809,33.691,-55.664,137.695,0.000
1732270586.093,167.969,979.004,454.590,343.750,0.000
1732270586.097,184.570,992.676,348.633,444.336,0.000
1732270586.101,118.652,775.391,68.848,218.262,0.000
1732270586.105,75.684,517.090,-238.281,4.395,0.000
1732270586.109,100.586,667.480,-143.555,99.609,0.000
1732270586.113,123.535,932.129,190.430,339.355,0.000
1732270586.117,115.723,993.652,340.332,424.316,0.000
1732270586.121,62.988,872.070,93.262,207.520,0.000
1732270586.125,37.598,432.617,-336.914,-4.883,0.000
1732270586.129,81.055,257.324,-297.852,68.848,0.000
1732270586.132,119.141,600.586,100.586,305.176,0.000
1732270586.136,86.426,956.055,375.977,382.812,0.000
1732270586.140,47.363,-977.051,302.246,189.941,0.000
1732270586.144,61.035,445.801,-231.445,1.465,0.000
1732270586.148,79.590,-29.785,-362.793,15.137,0.000
1732270586.152,62.012,733.887,270.996,180.664,0.000
1732270586.156,60.547,-948.242,427.734,349.609,0.000
1732270586.160,12.695,817.383,166.016,231.934,0.000
1732270586.164,-81.543,574.707,-171.875,-39.062,0.000
1732270586.168,-88.867,497.070,-229.980,-62.988,0.000
1732270586.171,-43.945,799.805,148.438,187.012,0.000
1732270586.175,-14.160,767.090,272.949,365.234,0.000
1732270586.179,-54.199,656.738,156.738,246.582,0.000
1732270586.183,-148.438,615.234,-42.480,-30.273,0.000
1732270586.187,-179.688,362.793,-257.812,-94.238,0.000
1732270586.191,-186.523,663.086,26.367,141.113,0.000
1732270586.195,-197.754,946.777,320.312,345.215,0.000
1732270586.199,-196.289,-995.605,232.422,283.203,0.000
1732270586.203,-228.516,559.570,-247.559,55.176,0.000
1732270586.207,-247.070,52.246,-481.445,-56.641,0.000
1732270586.211,-285.156,490.723,-154.785,121.094,0.000
1732270586.214,-327.148,982.910,216.797,331.055,0.000
1732270586.218,-349.121,833.008,70.801,321.289,0.000
1732270586.222,-403.809,-73.730,-363.770,77.148,0.000
1732270586.226,-398.926,-463.379,-414.062,-125.977,0.000
1732270586.230,-339.844,217.773,-28.320,-24.902,0.000
1732270586.234,-255.371,723.145,272.949,200.684,0.000
1732270586.238,-198.242,796.875,233.398,245.117,0.000
1732270586.242,-217.773,436.523,-151.855,-14.648,0.000
1732270586.246,-205.078,41.016,-432.617,-208.008,0.000
1732270586.250,-131.348,141.602,-267.578,-45.898,0.000
1732270586.253,-84.961,629.395,90.332,181.152,0.000
1732270586.257,-116.699,-966.309,316.406,220.703,0.000
1732270586.261,-166.016,751.953,-52.246,2.930,0.000
1732270586.265,-189.941,-124.512,-505.859,-200.684,0.000
1732270586.269,-204.590,-180.664,-410.156,-107.910,0.000
1732270586.273,-181.641,683.594,50.781,127.930,0.000
1732270586.277,-111.328,-922.852,290.527,220.215,0.000
1732270586.281,-66.406,326.660,-158.203,40.527,0.000
1732270586.284,-82.031,-227.051,-420.410,-211.426,0.000
1732270586.288,-35.156,280.762,-36.133,-172.852,0.000
1732270586.293,29.297,649.414,282.715,106.934,0.000
1732270586.296,-29.297,738.281,333.008,227.051,0.000
1732270586.300,-104.980,680.664,148.926,20.020,0.000
1732270586.304,-132.324,347.656,-308.105,-214.355,0.000
1732270586.308,-91.797,36.621,-493.652,-164.551,0.000
1732270586.312,-66.406,109.863,-316.895,104.004,0.000
1732270586.316,-89.844,531.738,-135.254,238.770,0.000
1732270586.320,-107.910,495.117,-343.750,77.148,0.000
1732270586.324,-115.234,-235.352,-709.961,-154.785,0.000
1732270586.327,-89.844,-658.691,-728.027,-153.320,0.000
1732270586.331,-129.395,79.102,-420.410,41.016,0.000
1732270586.335,-154.297,782.715,-381.348,197.754,0.000
1732270586.340,-153.320,459.961,-564.941,106.934,0.000
1732270586.343,-177.246,-163.574,-743.164,-140.625,0.000
1732270586.347,-167.480,-312.988,-847.168,-191.895,0.000
1732270586.351,-92.773,-27.832,-770.996,73.730,0.000
1732270586.355,-90.820,238.281,-713.379,278.809,0.000
1732270586.359,-104.004,140.137,-755.371,188.965,0.000
1732270586.363,-59.082,-232.910,-811.035,-77.148,0.000
1732270586.367,35.645,-419.922,-812.012,-171.387,0.000
1732270586.371,208.008,-729.980,-796.387,93.750,0.000
1732270586.374,267.578,-313.477,-672.852,266.602,0.000
1732270586.378,226.562,600.098,-586.426,158.203,0.000
1732270586.382,216.309,176.758,-747.070,-50.781,0.000
1732270586.386,233.887,-492.676,-817.871,-133.789,0.000
1732270586.390,251.465,-173.340,-628.906,40.527,0.000
1732270586.394,270.508,562.988,-450.195,247.070,0.000
1732270586.398,258.789,692.871,-519.043,259.277,0.000
1732270586.402,209.473,202.637,-698.242,33.203,0.000
1732270586.406,146.484,-307.129,-763.672,-144.531,0.000
1732270586.410,110.352,-149.414,-598.145,-1.465,0.000
1732270586.414,164.062,379.883,-486.816,268.066,0.000
1732270586.417,187.988,405.273,-446.777,325.195,0.000
1732270586.421,154.297,500.000,-387.695,61.035,0.000
1732270586.425,150.391,313.477,-462.402,-114.746,0.000
1732270586.429,210.449,59.082,-386.719,46.387,0.000
1732270586.433,250.488,582.031,56.152,271.973,0.000
1732270586.437,233.398,-972.656,366.699,321.777,0.000
1732270586.441,186.035,892.578,213.867,112.793,0.000
1732270586.445,153.320,332.031,-106.934,-86.426,0.000
1732270586.449,179.199,218.262,41.504,-15.625,0.000
1732270586.453,227.051,674.316,342.285,226.562,0.000
1732270586.457,224.609,-945.801,390.625,320.801,0.000
1732270586.460,231.445,538.574,-52.734,147.949,0.000
1732270586.464,232.422,-169.434,-531.738,-100.098,0.000
1732270586.468,249.023,221.191,-353.027,-114.258,0.000
1732270586.472,292.969,764.160,-64.453,166.504,0.000
1732270586.476,272.461,982.422,-18.555,308.105,0.000
1732270586.480,221.680,908.203,-286.133,118.652,0.000
1732270586.484,153.809,605.957,-476.562,-133.301,0.000
1732270586.488,132.324,347.168,-489.258,-134.277,0.000
1732270586.492,143.555,591.797,-192.383,104.980,0.000
1732270586.496,120.605,985.840,249.023,250.977,0.000
1732270586.500,105.469,888.184,22.461,118.164,0.000
1732270586.503,78.613,265.625,-469.727,-104.004,0.000
1732270586.507,57.129,-328.613,-529.785,-134.277,0.000
1732270586.511,47.852,386.719,35.645,32.227,0.000
1732270586.515,75.684,-929.688,386.230,212.891,0.000
1732270586.519,98.145,845.703,121.582,174.316,0.000
1732270586.523,78.125,333.496,-336.426,-77.637,0.000
1732270586.527,81.543,101.074,-461.426,-199.219,0.000
1732270586.531,127.441,616.211,-27.344,17.090,0.000
1732270586.535,165.039,758.789,225.098,250.000,0.000
1732270586.539,124.512,659.180,124.023,178.711,0.000
1732270586.542,57.129,383.789,-265.137,-99.609,0.000
1732270586.546,58.594,-157.715,-604.492,-208.008,0.000
1732270586.550,138.184,-346.191,-558.105,23.438,0.000
1732270586.554,123.047,187.012,-343.750,220.215,0.000
1732270586.558,33.691,-950.684,-103.027,167.480,0.000
1732270586.562,44.434,653.320,-395.508,-33.691,0.000
1732270586.566,25.391,-16.602,-558.594,-199.219,0.000
1732270586.570,0.977,311.523,-299.805,-60.059,0.000
1732270586.574,-0.488,904.297,34.668,169.434,0.000
1732270586.578,-20.508,939.453,10.254,202.637,0.000
1732270586.582,-43.457,373.047,-403.320,-21.973,0.000
1732270586.585,-30.273,-141.113,-547.363,-214.355,0.000
1732270586.589,41.504,-119.629,-466.309,-70.312,0.000
1732270586.593,8.789,100.098,-339.844,182.617,0.000
1732270586.597,-20.996,-127.441,-325.684,244.629,0.000
1732270586.601,-38.086,-342.773,-403.809,-10.742,0.000
1732270586.605,-27.832,-452.148,-487.793,-200.195,0.000
1732270586.609,63.965,-719.727,-456.543,-84.961,0.000
1732270586.613,86.426,-343.262,-45.410,128.906,0.000
1732270586.616,70.312,228.516,334.473,215.332,0.000
1732270586.621,48.828,-75.195,145.996,32.715,0.000
1732270586.624,14.160,-787.598,-266.113,-173.828,0.000
1732270586.628,9.277,-942.871,-288.574,-105.469,0.000
1732270586.632,85.449,-439.941,102.539,131.836,0.000
1732270586.636,116.699,-175.781,302.734,264.648,0.000
1732270586.640,74.219,-658.691,-62.012,111.816,0.000
1732270586.644,41.504,-1000.000,-465.332,-145.508,0.000
1732270586.648,104.492,-1000.000,-396.484,-163.086,0.000
1732270586.652,160.645,-712.402,-7.812,95.703,0.000
1732270586.655,193.359,-667.480,23.926,310.059,0.000
1732270586.659,178.711,-790.527,-209.961,145.020,0.000
1732270586.663,114.258,-842.773,-318.848,-147.461,0.000
1732270586.668,128.906,-1000.000,-481.445,-140.137,0.000
1732270586.672,131.836,-878.906,-244.141,101.562,0.000
1732270586.675,135.254,-426.270,167.480,253.906,0.000
1732270586.679,130.371,-461.914,42.480,144.043,0.000
1732270586.683,86.426,-875.488,-447.266,-85.449,0.000
1732270586.687,116.211,-1000.000,-637.695,-125.000,0.000
1732270586.691,152.832,-966.309,-412.598,70.801,0.000
1732270586.695,128.906,-762.207,-184.082,261.719,0.000
1732270586.699,148.926,-829.102,-366.699,234.863,0.000
1732270586.703,159.668,-1000.000,-612.793,-11.719,0.000
1732270586.706,158.203,-1000.000,-531.738,-180.176,0.000
1732270586.710,181.641,-890.625,-366.699,44.434,0.000
1732270586.715,146.973,-663.086,-214.355,305.664,0.000
1732270586.718,59.082,-530.762,-263.184,262.207,0.000
1732270586.722,13.672,-726.562,-445.312,-2.930,0.000
1732270586.726,52.734,-1000.000,-563.965,-129.395,0.000
1732270586.730,68.359,-998.535,-468.750,68.848,0.000
1732270586.734,97.656,-885.254,-227.539,268.066,0.000
1732270586.738,104.004,-601.562,-43.945,253.906,0.000
1732270586.742,70.801,-730.469,-290.527,21.484,0.000
1732270586.746,50.293,-1000.000,-582.031,-146.484,0.000
1732270586.750,30.762,-1000.000,-425.781,-27.832,0.000
1732270586.753,21.973,-742.188,-18.066,178.711,0.000
1732270586.757,0.488,-412.109,239.746,251.465,0.000
1732270586.762,-24.414,-788.086,-288.574,82.031,0.000
1732270586.765,-84.961,-1000.000,-576.172,-172.852,0.000
1732270586.769,-110.352,-974.609,-360.840,-117.188,0.000
1732270586.773,-80.078,-715.332,-57.129,146.484,0.000
1732270586.777,-94.727,-576.172,122.070,240.723,0.000
1732270586.781,-150.391,-848.633,-278.809,49.316,0.000
1732270586.785,-209.473,-1000.000,-571.777,-181.152,0.000
1732270586.789,-184.082,-1000.000,-510.254,-124.023,0.000
1732270586.793,-155.273,-969.238,-355.957,146.484,0.000
1732270586.796,-204.102,-525.879,136.719,238.281,0.000
1732270586.800,-229.492,-583.008,42.969,39.062,0.000
1732270586.804,-258.301,-993.652,-488.770,-166.016,0.000
1732270586.808,-299.805,-1000.000,-520.508,-143.555,0.000
1732270586.812,-315.918,-862.793,-150.879,65.430,0.000
1732270586.816,-387.207,-559.570,38.086,227.539,0.000
1732270586.820,-497.559,-789.551,-355.957,113.770,0.000
1732270586.824,-497.559,-1000.000,-689.941,-128.418,0.000
1732270586.828,-411.621,-990.234,-737.793,-162.109,0.000
1732270586.832,-302.734,-994.629,-614.258,64.941,0.000
1732270586.836,-190.918,-992.676,-587.402,287.109,0.000
1732270586.839,-173.340,-993.652,-688.477,168.945,0.000
1732270586.843,-196.289,-992.188,-736.816,-134.277,0.000
1732270586.847,-123.047,-1000.000,-791.992,-131.348,0.000
1732270586.851,-44.434,-1000.000,-640.137,126.953,0.000
1732270586.855,-44.434,-776.855,-425.293,293.945,0.000
1732270586.859,-86.426,-791.016,-507.324,245.605,0.000
1732270586.863,-97.656,-1000.000,-750.000,25.391,0.000
1732270586.867,-120.605,-1000.000,-749.023,-110.840,0.000
1732270586.871,-183.594,-995.117,-545.898,70.801,0.000
1732270586.875,-232.422,-998.535,-412.598,294.434,0.000
1732270586.879,-302.734,-999.512,-496.094,282.227,0.000
1732270586.882,-339.844,-999.512,-690.430,24.902,0.000
1732270586.886,-316.895,-1000.000,-681.152,-167.480,0.000
1732270586.890,-240.723,-992.188,-513.184,14.160,0.000
1732270586.894,-102.051,-978.516,-418.457,270.996,0.000
1732270586.898,-57.617,-990.234,-450.195,268.066,0.000
1732270586.902,-79.102,-998.047,-555.664,1.465,0.000
1732270586.906,-32.227,-993.164,-714.844,-150.391,0.000
1732270586.910,28.809,-1000.000,-617.188,10.742,0.000
1732270586.914,55.664,-886.230,-405.762,216.309,0.000
1732270586.918,38.086,-831.055,-435.547,256.836,0.000
1732270586.921,-21.484,-1000.000,-687.500,46.875,0.000
1732270586.925,-37.598,-998.535,-907.715,-132.812,0.000
1732270586.929,-74.707,-1000.000,-799.805,-61.035,0.000
1732270586.933,-122.070,-924.316,-522.461,107.910,0.000
1732270586.937,-77.637,-885.742,-553.711,220.215,0.000
1732270586.941,-50.293,-1000.000,-745.117,24.902,0.000
1732270586.945,-52.246,-1000.000,-833.496,-220.215,0.000
1732270586.949,0.000,-996.094,-770.996,-138.672,0.000
1732270586.953,0.000,-998.535,-637.695,123.535,0.000
1732270586.957,0.000,-978.027,-585.938,235.840,0.000
1732270586.961,0.000,-978.027,-730.469,38.574,0.000
1732270586.964,0.000,-1000.000,-870.605,-185.547,0.000
1732270586.968,0.000,-1000.000,-872.559,-119.629,0.000
1732270586.972,0.000,-1000.000,-751.953,145.508,0.000
1732270586.976,0.000,-1000.000,-623.535,248.535,0.000
1732270586.980,0.000,-1000.000,-722.168,69.824,0.000
1732270586.984,0.000,-997.559,-872.070,-140.625,0.000
1732270586.988,0.000,-1000.000,-874.512,-153.320,0.000
1732270586.992,0.000,-986.816,-696.777,70.312,0.000
1732270586.996,132.812,-884.277,-546.387,258.789,0.000
1732270587.000,144.531,-918.457,-642.578,162.598,0.000
1732270587.004,116.699,-1000.000,-800.781,-77.148,0.000
1732270587.007,120.605,-998.047,-757.812,-135.742,0.000
1732270587.011,188.965,-999.023,-597.168,134.766,0.000
1732270587.015,209.473,-1000.000,-511.719,353.516,0.000
1732270587.019,165.527,-1000.000,-490.234,242.188,0.000
1732270587.023,103.027,-1000.000,-562.500,-39.062,0.000
1732270587.027,118.652,-999.023,-645.020,-117.676,0.000
1732270587.031,157.227,-1000.000,-508.301,97.656,0.000
1732270587.035,155.762,-953.125,-284.668,268.555,0.000
1732270587.038,143.555,-934.082,-267.578,201.172,0.000
1732270587.043,146.973,-996.094,-527.832,-27.832,0.000
1732270587.047,166.016,-1000.000,-641.113,-156.738,0.000
1732270587.051,136.230,-1000.000,-389.160,-33.691,0.000
1732270587.054,123.535,-854.004,46.875,202.148,0.000
1732270587.058,136.719,-851.562,192.383,221.191,0.000
1732270587.062,158.203,-1000.000,-224.609,-31.250,0.000
1732270587.066,231.445,-1000.000,-434.570,-184.082,0.000
1732270587.070,372.559,-996.094,-122.559,-30.273,0.000
1732270587.074,512.695,-1000.000,289.551,229.004,0.000
1732270587.078,584.473,-996.094,361.328,277.344,0.000
1732270587.082,610.840,-995.605,262.207,2.930,0.000
1732270587.085,667.969,-993.652,154.297,-194.336,0.000
1732270587.090,720.703,-1000.000,151.855,-63.965,0.000
1732270587.094,693.359,-937.988,326.660,154.297,0.000
1732270587.097,595.703,-831.055,509.277,209.473,0.000
1732270587.101,431.641,-947.754,340.820,12.207,0.000
1732270587.105,351.074,-1000.000,128.418,-176.270,0.000
1732270587.109,379.883,-1000.000,209.961,-95.703,0.000
1732270587.113,333.496,-951.172,401.367,124.512,0.000
1732270587.117,281.250,-761.719,546.387,228.516,0.000
1732270587.121,260.742,-901.367,250.977,108.887,0.000
1732270587.125,168.457,-1000.000,6.836,-114.746,0.000
1732270587.128,149.902,-997.070,270.020,-123.535,0.000
1732270587.132,157.227,-938.965,413.574,131.836,0.000
1732270587.137,61.035,-745.605,508.301,258.789,0.000
1732270587.140,46.875,-742.188,480.469,104.004,0.000
1732270587.144,104.492,-965.332,338.867,-100.098,0.000
1732270587.148,139.160,-1000.000,313.477,-74.707,0.000
1732270587.152,151.367,-916.016,484.375,155.273,0.000
1732270587.156,153.809,-776.855,625.000,307.129,0.000
1732270587.160,108.398,-897.461,570.801,190.918,0.000
1732270587.164,-32.715,-1000.000,398.926,-54.688,0.000
1732270587.168,-90.332,-1000.000,363.281,-103.027,0.000
1732270587.171,-92.773,-930.664,500.488,92.285,0.000
1732270587.175,-95.215,-627.441,503.418,262.695,0.000
1732270587.179,-115.723,-756.836,333.496,177.734,0.000
1732270587.183,-145.996,-1000.000,194.824,-49.316,0.000
1732270587.187,-189.941,-1000.000,289.551,-152.344,0.000
1732270587.191,-270.020,-942.871,486.816,51.758,0.000
1732270587.195,-441.406,-792.969,605.469,273.438,0.000
1732270587.199,-622.070,-746.582,639.160,174.316,0.000
1732270587.203,-748.535,-940.430,634.766,-115.723,0.000
1732270587.207,-831.055,-996.582,672.363,-170.898,0.000
1732270587.211,-877.930,-1000.000,805.664,93.262,0.000
1732270587.214,-951.660,-806.641,899.902,280.273,0.000
1732270587.218,-1000.000,-322.266,916.016,186.035,0.000
1732270587.222,-997.559,-663.574,913.574,-34.668,0.000
1732270587.226,-1000.000,-1000.000,917.480,-184.082,0.000
1732270587.230,-1000.000,-992.188,929.199,-44.434,0.000
1732270587.234,-1000.000,-732.910,942.871,179.199,0.000
1732270587.238,-1000.000,-749.023,946.289,248.535,0.000
1732270587.242,-1000.000,-1000.000,945.312,50.293,0.000
1732270587.246,-1000.000,-999.512,950.684,-145.996,0.000
1732270587.250,-1000.000,-994.141,958.496,-7.324,0.000
1732270587.254,-1000.000,-1000.000,965.820,243.164,0.000
1732270587.257,-1000.000,-1000.000,967.285,287.109,0.000
1732270587.261,-1000.000,-1000.000,968.750,36.621,0.000
1732270587.265,-1000.000,-1000.000,968.262,-191.406,0.000
1732270587.269,-1000.000,-1000.000,968.262,-99.121,0.000
1732270587.273,-1000.000,-1000.000,972.168,138.672,0.000
1732270587.277,-999.023,-1000.000,972.168,205.078,0.000
1732270587.281,-991.211,-1000.000,960.938,27.344,0.000
1732270587.285,-1000.000,-1000.000,948.730,-164.551,0.000
1732270587.289,-829.102,-1000.000,951.660,-134.766,0.000
1732270587.293,-475.586,-1000.000,956.055,58.105,0.000
1732270587.297,-238.281,-1000.000,950.195,157.227,0.000
1732270587.300,-64.453,-1000.000,938.965,29.785,0.000
1732270587.304,73.730,-1000.000,934.570,-195.312,0.000
1732270587.308,168.945,-1000.000,933.594,-226.562,0.000
1732270587.312,212.402,-1000.000,933.105,27.344,0.000
1732270587.316,278.809,-1000.000,932.617,186.035,0.000
1732270587.320,451.660,-1000.000,921.387,51.270,0.000
1732270587.324,754.395,-1000.000,913.086,-170.410,0.000
1732270587.328,966.309,-1000.000,910.156,-194.824,0.000
1732270587.332,969.727,-1000.000,898.926,6.836,0.000
1732270587.336,970.215,-1000.000,902.344,152.832,0.000
1732270587.339,974.609,-1000.000,894.531,66.895,0.000
1732270587.343,973.633,-1000.000,775.879,-150.879,0.000
1732270587.347,973.633,-1000.000,684.082,-220.703,0.000
1732270587.351,973.633,-1000.000,749.023,-49.316,0.000
1732270587.355,973.633,-1000.000,773.438,111.816,0.000
1732270587.359,973.633,-1000.000,662.109,94.238,0.000
1732270587.363,973.633,-1000.000,536.621,-129.395,0.000
1732270587.367,973.633,-1000.000,528.809,-265.137,0.000
1732270587.371,973.633,-1000.000,583.008,-69.824,0.000
1732270587.375,973.633,-1000.000,552.734,141.113,0.000
1732270587.379,974.121,-1000.000,504.395,102.539,0.000
1732270587.382,974.121,-1000.000,399.414,-141.602,0.000
1732270587.386,973.633,-1000.000,310.059,-270.508,0.000
1732270587.390,973.633,-1000.000,286.621,-65.430,0.000
1732270587.394,973.633,-1000.000,372.070,140.137,0.000
1732270587.398,974.121,-1000.000,463.379,111.816,0.000
1732270587.402,974.121,-1000.000,258.789,-71.777,0.000
1732270587.406,973.633,-1000.000,-186.523,-193.359,0.000
1732270587.410,973.633,-1000.000,-34.180,-104.980,0.000
1732270587.413,973.633,-1000.000,365.723,112.305,0.000
1732270587.418,973.633,-1000.000,299.805,204.590,0.000
1732270587.422,973.633,-1000.000,-78.613,-0.488,0.000
1732270587.425,973.633,-1000.000,-387.207,-205.566,0.000
1732270587.429,973.633,-1000.000,-332.520,-100.586,0.000
1732270587.433,973.633,-1000.000,-111.328,140.137,0.000
1732270587.437,973.633,-1000.000,40.039,227.539,0.000
1732270587.441,973.633,-1000.000,-142.578,52.734,0.000
1732270587.445,973.633,-1000.000,-365.234,-160.645,0.000
1732270587.449,974.121,-1000.000,-395.020,-75.195,0.000
1732270587.453,974.121,-1000.000,-172.852,170.898,0.000
1732270587.456,973.633,-1000.000,243.164,259.277,0.000
1732270587.460,974.121,-1000.000,78.613,140.137,0.000
1732270587.465,973.633,-999.023,-392.578,-47.852,0.000
1732270587.469,973.633,-1000.000,-472.168,-47.363,0.000
1732270587.472,974.121,-994.629,-185.059,162.109,0.000
1732270587.476,974.121,-978.027,49.316,319.336,0.000
1732270587.480,973.145,-996.582,-225.586,183.594,0.000
1732270587.484,969.727,-1000.000,-541.016,-61.523,0.000
1732270587.488,987.305,-999.023,-510.254,-113.281,0.000
1732270587.492,881.836,-1000.000,-298.340,75.195,0.000
1732270587.496,847.656,-1000.000,-262.207,267.578,0.000
1732270587.500,882.812,-986.816,-353.027,146.484,0.000
1732270587.503,889.648,-979.004,-372.559,-139.648,0.000
1732270587.507,911.133,-1000.000,-511.230,-184.570,0.000
1732270587.512,760.254,-974.609,-378.418,-2.441,0.000
1732270587.515,589.844,-715.332,-106.445,142.090,0.000
1732270587.519,462.402,-673.340,-182.129,95.215,0.000
1732270587.523,381.836,-931.152,-498.047,-123.047,0.000
1732270587.527,307.129,-1000.000,-574.219,-238.281,0.000
1732270587.531,156.250,-999.023,-452.637,-62.988,0.000
1732270587.535,20.508,-936.523,-323.242,136.230,0.000
1732270587.539,-4.395,-923.340,-370.117,116.699,0.000
1732270587.543,62.012,-993.164,-581.543,-76.172,0.000
1732270587.546,56.152,-1000.000,-544.434,-249.023,0.000
1732270587.550,-71.289,-915.039,-343.262,-119.141,0.000
1732270587.554,-191.406,-756.836,-234.863,128.418,0.000
1732270587.558,-242.188,-666.504,-262.695,138.672,0.000
1732270587.562,-212.402,-764.648,-421.875,-101.562,0.000
1732270587.566,-241.699,-1000.000,-560.059,-257.812,0.000
1732270587.570,-375.977,-999.023,-466.797,-115.723,0.000
1732270587.574,-514.648,-620.605,-210.938,82.031,0.000
1732270587.578,-592.285,-514.160,-264.160,133.301,0.000
1732270587.582,-508.301,-876.465,-512.207,-62.500,0.000
1732270587.586,-454.102,-1000.000,-641.602,-225.586,0.000
1732270587.589,-516.602,-888.672,-553.223,-153.809,0.000
1732270587.593,-588.379,-341.797,-192.871,-7.812,0.000
1732270587.597,-615.234,-58.594,-195.801,127.441,0.000
1732270587.601,-486.328,-537.109,-470.215,-5.859,0.000
1732270587.605,-338.867,-877.930,-547.852,-260.742,0.000
1732270587.609,-318.848,-667.969,-474.609,-207.031,0.000
1732270587.613,-367.676,-387.207,-388.184,75.195,0.000
1732270587.617,-407.715,-250.977,-329.102,185.059,0.000
1732270587.621,-349.121,-296.875,-439.941,-15.625,0.000
1732270587.625,-290.527,-761.230,-603.027,-210.449,0.000
1732270587.629,-283.203,-1000.000,-559.082,-129.883,0.000
1732270587.632,-274.902,-863.770,-421.875,92.773,0.000
1732270587.636,-279.297,-312.012,-170.410,182.617,0.000
1732270587.640,-170.410,-33.203,-227.539,58.105,0.000
1732270587.644,6.836,-613.281,-508.301,-128.418,0.000
1732270587.648,130.371,-906.738,-538.574,-138.672,0.000
1732270587.652,96.680,-321.289,-236.816,59.082,0.000
1732270587.656,21.484,96.680,-17.578,211.426,0.000
1732270587.660,33.203,-274.902,-263.672,127.930,0.000
1732270587.664,34.180,-599.609,-464.844,-120.605,0.000
1732270587.668,18.555,-633.789,-476.074,-187.012,0.000
1732270587.671,-99.121,-450.195,-331.055,18.555,0.000
1732270587.675,-234.863,-434.082,-283.691,222.168,0.000
1732270587.679,-229.004,-425.293,-324.219,133.301,0.000
1732270587.683,-158.203,-212.402,-329.590,-176.270,0.000
1732270587.687,-99.609,-377.930,-447.266,-252.930,0.000
1732270587.691,-160.156,-311.035,-336.914,-34.668,0.000
1732270587.695,-275.391,83.496,-28.809,140.137,0.000
1732270587.699,-244.141,420.898,123.047,100.586,0.000
1732270587.703,-147.461,-16.602,-270.996,-86.914,0.000
1732270587.707,-125.977,-522.461,-520.020,-225.586,0.000
1732270587.711,-148.926,-243.164,-327.148,-83.008,0.000
1732270587.714,-233.887,138.184,-107.422,140.625,0.000
1732270587.718,-248.535,18.555,-186.035,167.480,0.000
1732270587.722,-161.133,-619.629,-463.379,-50.293,0.000
1732270587.726,-131.836,-873.047,-503.418,-226.074,0.000
1732270587.730,-151.855,-379.395,-308.105,-101.562,0.000
1732270587.734,-140.137,-55.176,-116.699,140.625,0.000
1732270587.738,-122.559,100.586,4.395,188.965,0.000
1732270587.742,-17.090,80.566,-153.320,-18.555,0.000
1732270587.746,114.258,-265.137,-428.223,-173.828,0.000
1732270587.750,96.191,-440.918,-408.691,-49.805,0.000
1732270587.753,18.555,-84.961,-145.020,164.551,0.000
1732270587.757,-55.664,509.277,153.320,229.004,0.000
1732270587.761,-14.648,376.953,-136.719,80.078,0.000
1732270587.765,18.555,-375.000,-512.695,-67.871,0.000
1732270587.769,-81.055,-557.617,-442.871,-4.395,0.000
1732270587.773,-173.340,102.051,-156.738,190.430,0.000
1732270587.777,-216.309,694.336,156.738,280.762,0.000
1732270587.781,-198.730,164.551,-184.570,139.160,0.000
1732270587.784,-204.590,-305.664,-503.418,-86.426,0.000
1732270587.788,-214.844,123.535,-300.293,-96.680,0.000
1732270587.793,-236.328,401.367,-56.641,131.836,0.000
1732270587.797,-273.438,564.453,192.871,242.676,0.000
1732270587.800,-218.262,581.055,146.973,67.871,0.000
1732270587.804,-184.082,223.145,-247.070,-149.414,0.000
1732270587.808,-193.848,-161.621,-440.430,-128.418,0.000
1732270587.812,-191.406,-60.547,-214.844,96.680,0.000
1732270587.816,-309.082,343.262,168.457,226.074,0.000
1732270587.820,-309.082,534.180,227.051,102.539,0.000
1732270587.824,-97.168,65.918,-224.121,-129.883,0.000
1732270587.828,112.305,-657.227,-524.902,-164.551,0.000
1732270587.831,160.645,-54.199,-20.020,16.113,0.000
1732270587.835,178.223,778.320,370.605,179.688,0.000
1732270587.840,337.402,536.621,190.430,133.301,0.000
1732270587.843,520.508,4.883,-198.242,-109.863,0.000
1732270587.847,625.977,-156.250,-378.906,-197.754,0.000
1732270587.851,563.477,183.594,-71.777,-5.859,0.000
1732270587.855,454.590,403.320,141.602,164.551,0.000
1732270587.859,416.504,296.875,11.230,133.789,0.000
1732270587.863,338.379,56.152,-257.812,-108.887,0.000
1732270587.867,384.766,0.488,-355.469,-279.297,0.000
1732270587.871,446.777,-242.676,-390.625,-8.789,0.000
1732270587.874,351.074,5.859,-60.547,214.355,0.000
1732270587.878,263.672,851.074,345.215,104.004,0.000
1732270587.882,320.801,453.125,-150.879,-73.242,0.000
1732270587.886,411.621,-164.551,-515.137,-195.801,0.000
1732270587.890,375.000,97.656,-318.848,-74.219,0.000
1732270587.894,293.457,757.324,127.930,186.523,0.000
1732270587.898,209.473,893.555,181.641,259.766,0.000
1732270587.902,252.441,280.273,-336.914,34.180,0.000
1732270587.906,263.672,-309.570,-529.297,-164.062,0.000
1732270587.910,200.684,-277.344,-361.816,-67.383,0.000
1732270587.914,86.426,49.805,-168.945,152.344,0.000
1732270587.917,-9.766,14.648,-135.742,243.164,0.000
1732270587.921,55.664,15.625,-250.488,10.742,0.000
1732270587.925,105.469,-79.590,-397.461,-198.730,0.000
1732270587.929,149.414,-290.039,-451.172,-93.262,0.000
1732270587.933,94.238,23.926,-220.703,115.234,0.000
1732270587.937,25.391,589.355,18.555,181.152,0.000
1732270587.941,59.570,257.812,-327.148,25.879,0.000
1732270587.945,42.969,-519.043,-603.027,-174.316,0.000
1732270587.949,-22.949,-474.609,-491.699,-107.910,0.000
1732270587.953,-141.602,-67.871,-372.559,138.184,0.000
1732270587.957,-201.172,214.844,-256.836,270.020,0.000
1732270587.960,-151.367,-223.145,-475.098,166.016,0.000
1732270587.964,-89.844,-717.285,-626.465,-104.004,0.000
1732270587.968,-109.863,-208.984,-452.637,-171.387,0.000
1732270587.972,-192.383,216.797,-358.887,63.477,0.000
1732270587.976,-279.785,372.070,-292.480,220.215,0.000
1732270587.980,-284.668,439.453,-373.047,114.746,0.000
1732270587.984,-297.363,146.973,-529.297,-112.793,0.000
1732270587.988,-300.781,-252.930,-577.148,-170.898,0.000
1732270587.992,-375.488,-58.594,-408.203,40.039,0.000
1732270587.996,-503.906,431.641,-244.141,206.543,0.000
1732270588.000,-468.262,290.527,-405.273,147.949,0.000
1732270588.003,-406.250,-265.625,-603.027,-65.918,0.000
1732270588.007,-371.582,-820.801,-635.254,-159.668,0.000
1732270588.011,-503.906,-380.859,-397.949,-10.254,0.000
1732270588.015,-574.707,560.547,-133.301,158.691,0.000
1732270588.019,-450.195,503.418,-303.223,158.691,0.000
1732270588.023,-335.449,-17.090,-587.402,-54.688,0.000
1732270588.027,-312.012,-179.199,-554.199,-198.730,0.000
1732270588.031,-353.027,28.809,-446.289,-37.109,0.000
1732270588.035,-387.207,248.047,-365.234,164.062,0.000
1732270588.039,-408.203,438.965,-350.098,154.297,0.000
1732270588.043,-302.246,259.766,-504.395,-73.242,0.000
1732270588.046,-237.793,-275.391,-600.586,-194.824,0.000
1732270588.050,-292.480,-532.227,-556.641,8.789,0.000
1732270588.054,-360.840,-273.438,-434.570,200.195,0.000
1732270588.058,-413.574,472.168,-251.953,146.484,0.000
1732270588.062,-361.328,350.098,-437.500,-32.227,0.000
1732270588.066,-315.918,-242.676,-600.586,-178.223,0.000
1732270588.070,-331.543,-134.277,-464.355,-93.750,0.000
1732270588.074,-344.238,437.500,-223.633,104.004,0.000
1732270588.078,-337.402,625.488,-172.852,185.059,0.000
1732270588.082,-248.047,124.023,-442.871,20.020,0.000
1732270588.085,-169.922,-184.570,-536.133,-185.059,0.000
1732270588.089,-156.738,-52.246,-444.336,-102.539,0.000
1732270588.093,-153.809,185.059,-305.176,138.672,0.000
1732270588.097,-136.230,-17.578,-311.523,238.770,0.000
1732270588.101,-69.336,-193.848,-432.129,11.230,0.000
1732270588.105,-37.598,-111.328,-470.215,-231.934,0.000
1732270588.109,-23.438,-280.762,-482.910,-138.184,0.000
1732270588.113,-53.223,-156.738,-365.723,81.055,0.000
1732270588.117,-94.727,433.594,-53.223,172.363,0.000
1732270588.121,-19.531,559.082,-139.160,41.016,0.000
1732270588.125,58.594,-60.547,-466.309,-158.691,0.000
1732270588.128,61.523,-277.832,-466.309,-157.227,0.000
1732270588.132,-10.254,286.621,-211.914,31.738,0.000
1732270588.136,-59.570,722.168,0.488,167.480,0.000
1732270588.140,-24.902,192.383,-307.129,64.453,0.000
1732270588.144,-10.742,-339.355,-523.926,-164.551,0.000
1732270588.148,-46.875,-92.285,-433.594,-221.191,0.000
1732270588.152,-86.426,317.871,-250.977,8.301,0.000
1732270588.156,-161.133,345.703,-182.129,193.359,0.000
1732270588.159,-195.801,378.418,-230.957,76.660,0.000
1732270588.163,-134.277,410.645,-327.148,-164.551,0.000
1732270588.168,-97.656,-63.965,-516.113,-204.590,0.000
1732270588.171,-151.367,25.391,-332.520,-10.254,0.000
1732270588.175,-213.867,600.098,-16.602,159.668,0.000
1732270588.179,-175.293,813.965,-14.648,78.125,0.000
1732270588.183,-91.309,268.555,-359.863,-131.836,0.000
1732270588.187,-15.137,-394.043,-538.086,-194.824,0.000
1732270588.191,-65.918,-188.477,-346.680,-42.969,0.000
1732270588.195,-134.766,438.477,-7.324,131.348,0.000
1732270588.199,-91.309,602.539,10.254,119.629,0.000
1732270588.202,-27.832,17.090,-368.164,-88.379,0.000
1732270588.206,-7.324,-67.383,-438.477,-254.883,0.000
1732270588.210,-84.473,379.883,-211.426,-95.215,0.000
1732270588.214,-174.316,589.844,-5.371,168.457,0.000
1732270588.218,-193.359,656.250,13.672,178.223,0.000
1732270588.222,-117.188,494.141,-220.215,-74.707,0.000
1732270588.226,-0.977,-53.223,-464.844,-220.703,0.000
1732270588.230,-25.879,-167.969,-385.254,-89.355,0.000
1732270588.234,-121.582,215.332,-126.953,136.230,0.000
1732270588.238,-177.246,638.184,102.051,185.059,0.000
1732270588.242,-152.832,604.004,-121.094,-20.508,0.000
1732270588.246,-79.590,-348.145,-536.621,-149.902,0.000
1732270588.249,-110.352,-490.234,-381.836,-83.496,0.000
1732270588.253,-168.945,614.746,152.832,77.148,0.000
1732270588.257,-139.160,905.762,298.340,200.684,0.000
1732270588.261,-63.477,385.254,-85.938,19.531,0.000
1732270588.265,-20.996,22.461,-391.113,-199.219,0.000
1732270588.269,2.441,102.051,-312.012,-137.695,0.000
1732270588.273,-27.344,397.461,2.930,105.957,0.000
1732270588.277,-44.922,563.965,208.496,224.609,0.000
1732270588.281,45.898,310.059,-61.523,38.086,0.000
1732270588.285,125.977,-146.973,-396.484,-169.434,0.000
1732270588.289,156.738,-349.121,-445.312,-116.211,0.000
1732270588.292,109.863,-235.840,-246.094,106.445,0.000
1732270588.296,-0.488,472.168,226.074,203.613,0.000
1732270588.300,15.625,800.781,247.070,69.824,0.000
1732270588.304,102.051,167.480,-253.906,-134.277,0.000
1732270588.308,108.398,-107.422,-406.738,-140.137,0.000
1732270588.312,15.625,445.312,-15.137,62.988,0.000
1732270588.316,7.324,839.844,271.484,221.680,0.000
1732270588.320,107.910,616.699,98.145,155.762,0.000
1732270588.324,175.293,159.180,-318.359,-73.242,0.000
1732270588.328,167.480,-172.363,-478.027,-133.301,0.000
1732270588.332,41.016,96.191,-159.180,53.223,0.000
1732270588.335,-43.945,257.324,37.598,230.469,0.000
1732270588.339,-53.223,76.660,-97.168,190.430,0.000
1732270588.343,-24.414,281.250,-141.113,-78.125,0.000
1732270588.347,22.949,112.793,-327.637,-174.316,0.000
1732270588.351,-13.672,158.203,-176.270,52.734,0.000
1732270588.355,-54.688,663.574,226.074,237.305,0.000
1732270588.359,-35.156,924.316,311.523,163.086,0.000
1732270588.363,57.617,422.852,-131.836,-46.875,0.000
1732270588.367,115.723,-88.867,-459.473,-157.227,0.000
1732270588.371,71.777,150.879,-238.770,-13.184,0.000
1732270588.375,3.418,501.953,60.059,172.363,0.000
1732270588.378,-4.883,542.480,65.430,178.711,0.000
1732270588.382,69.824,-104.492,-293.457,-32.227,0.000
1732270588.386,111.816,-243.164,-379.883,-233.398,0.000
1732270588.390,81.055,322.266,-152.832,-93.750,0.000
1732270588.394,35.156,520.996,31.738,151.855,0.000
1732270588.398,19.531,634.766,125.000,158.691,0.000
1732270588.402,72.266,602.539,-23.438,-82.520,0.000
1732270588.406,145.508,211.426,-354.492,-234.375,0.000
1732270588.410,121.094,24.414,-385.742,-93.750,0.000
1732270588.414,22.949,439.453,-0.977,126.953,0.000
1732270588.417,-14.648,879.395,261.719,185.059,0.000
1732270588.421,55.176,575.195,-94.727,12.207,0.000
1732270588.425,141.602,-307.129,-512.207,-136.230,0.000
1732270588.429,141.113,-454.102,-375.488,-89.844,0.000
1732270588.433,46.387,587.402,170.898,70.801,0.000
1732270588.437,63.477,991.699,324.707,212.402,0.000
1732270588.441,152.344,602.051,2.930,72.754,0.000
1732270588.445,212.891,176.270,-335.938,-157.715,0.000
1732270588.449,184.570,180.664,-296.387,-142.578,0.000
1732270588.453,96.191,396.973,-36.133,111.816,0.000
1732270588.457,8.789,591.797,198.730,248.535,0.000
1732270588.460,68.848,674.316,161.621,79.590,0.000
1732270588.464,190.430,301.270,-252.441,-109.863,0.000
1732270588.468,200.195,-139.160,-443.848,-71.289,0.000
1732270588.472,135.742,-240.723,-299.805,156.250,0.000
1732270588.476,74.707,273.926,74.219,262.207,0.000
1732270588.480,110.352,805.664,284.180,131.836,0.000
1732270588.484,204.102,316.895,-198.730,-52.246,0.000
1732270588.488,198.242,-93.750,-454.590,-97.168,0.000
1732270588.491,95.215,442.383,-57.129,92.285,0.000
1732270588.496,43.945,947.266,287.598,281.738,0.000
1732270588.499,72.266,750.977,131.348,222.656,0.000
1732270588.503,111.816,302.734,-266.113,-2.441,0.000
1732270588.507,140.625,48.828,-426.758,-76.660,0.000
1732270588.511,100.586,165.039,-234.375,117.188,0.000
1732270588.515,61.523,301.270,-53.711,307.617,0.000
1732270588.519,61.035,408.203,0.000,252.930,0.000
1732270588.523,93.262,486.328,-88.867,7.324,0.000
1732270588.527,160.645,179.199,-318.359,-94.238,0.000
1732270588.530,134.277,-1.953,-280.762,96.680,0.000
1732270588.534,74.707,378.418,76.660,266.602,0.000
1732270588.538,67.383,858.398,330.078,236.328,0.000
1732270588.543,124.023,444.336,-93.262,32.715,0.000
1732270588.546,176.270,-100.098,-453.613,-128.418,0.000
1732270588.550,151.367,187.500,-188.965,5.371,0.000
1732270588.554,105.469,747.070,205.566,213.379,0.000
1732270588.558,101.074,824.219,245.117,261.230,0.000
1732270588.562,168.457,173.828,-216.309,72.754,0.000
1732270588.566,181.641,-262.207,-474.609,-118.164,0.000
1732270588.570,127.441,-9.277,-302.734,-14.648,0.000
1732270588.574,82.520,335.938,-68.848,219.727,0.000
1732270588.577,32.227,443.848,13.184,280.273,0.000
1732270588.581,28.320,479.980,-88.379,40.527,0.000
1732270588.585,87.891,291.992,-316.895,-149.414,0.000
1732270588.589,104.492,99.121,-339.355,-49.316,0.000
1732270588.593,66.406,441.895,47.363,183.594,0.000
1732270588.597,20.020,964.355,374.023,280.762,0.000
1732270588.601,53.711,739.746,119.629,93.750,0.000
1732270588.605,143.066,1.465,-314.941,-107.910,0.000
1732270588.609,106.445,-296.875,-361.328,-46.875,0.000
1732270588.613,-30.762,253.418,76.660,145.996,0.000
1732270588.617,-83.496,891.113,416.016,242.676,0.000
1732270588.620,-13.184,248.047,-10.742,172.852,0.000
1732270588.624,32.715,-427.246,-366.699,-63.965,0.000
1732270588.628,4.883,72.754,-65.918,-152.832,0.000
1732270588.632,-52.246,455.078,223.145,95.703,0.000
1732270588.636,-148.438,613.770,354.004,257.812,0.000
1732270588.640,-134.277,578.613,298.828,115.723,0.000
1732270588.644,-40.039,259.277,26.855,-127.930,0.000
1732270588.648,15.625,-49.316,-149.414,-140.137,0.000
1732270588.652,-24.414,71.777,101.074,96.680,0.000
1732270588.656,-82.520,378.418,341.309,249.512,0.000
1732270588.660,-63.965,375.000,279.785,153.320,0.000
1732270588.663,-0.977,-60.547,-77.637,-63.477,0.000
1732270588.667,34.668,-625.977,-332.520,-127.930,0.000
1732270588.671,-60.547,4.883,138.672,21.484,0.000
1732270588.675,-163.086,848.633,462.402,194.824,0.000
1732270588.679,-196.289,519.043,282.227,183.105,0.000
1732270588.683,-183.594,21.973,1.465,-39.551,0.000
1732270588.687,-174.805,-60.059,-91.797,-174.805,0.000
1732270588.691,-267.090,151.855,189.941,0.000,0.000
1732270588.695,-375.000,397.461,372.559,200.684,0.000
1732270588.699,-379.395,540.527,338.379,189.941,0.000
1732270588.703,-281.738,168.945,92.285,-14.648,0.000
1732270588.706,-211.426,-256.348,-156.738,-166.504,0.000
1732270588.710,-238.281,-350.586,-91.309,17.090,0.000
1732270588.714,-340.820,51.270,203.125,213.867,0.000
1732270588.718,-416.992,884.766,453.613,180.664,0.000
1732270588.722,-333.008,627.441,205.566,-0.977,0.000
1732270588.726,-251.465,-29.785,-136.230,-163.574,0.000
1732270588.730,-283.691,127.930,85.449,-63.477,0.000
1732270588.734,-318.848,600.586,393.066,154.785,0.000
1732270588.738,-303.711,623.535,349.121,229.004,0.000
1732270588.742,-258.301,306.152,130.859,27.832,0.000
1732270588.746,-202.637,54.688,-120.605,-161.133,0.000
1732270588.749,-147.949,-35.645,-125.000,-57.129,0.000
1732270588.753,-164.551,229.492,166.504,161.621,0.000
1732270588.757,-192.871,269.531,267.578,253.906,0.000
1732270588.761,-128.418,296.875,206.055,37.109,0.000
1732270588.765,-24.902,418.457,68.359,-193.359,0.000
1732270588.769,47.852,85.938,-126.953,-112.793,0.000
1732270588.773,0.977,349.609,128.418,103.027,0.000
1732270588.777,-52.734,990.234,437.500,203.613,0.000
1732270588.781,25.879,905.762,301.758,61.035,0.000
1732270588.785,128.418,251.465,-113.770,-142.578,0.000
1732270588.789,137.207,53.711,-191.895,-131.348,0.000
1732270588.792,76.660,482.422,213.379,80.078,0.000
1732270588.796,34.668,860.840,432.129,212.891,0.000
1732270588.800,119.629,488.281,183.594,137.207,0.000
1732270588.804,191.406,-134.277,-148.438,-104.004,0.000
1732270588.808,210.938,225.098,28.320,-212.891,0.000
1732270588.812,194.336,707.031,306.641,28.320,0.000
1732270588.816,151.367,950.684,404.785,233.887,0.000
1732270588.820,196.777,982.910,384.277,141.113,0.000
1732270588.824,248.047,846.680,220.215,-109.863,0.000
1732270588.828,266.113,524.902,28.809,-171.875,0.000
1732270588.831,184.082,636.719,222.168,46.387,0.000
1732270588.835,107.910,959.961,458.496,218.262,0.000
1732270588.839,121.094,994.629,390.137,183.594,0.000
1732270588.843,171.387,675.781,115.723,-31.250,0.000
1732270588.847,220.215,-95.703,-231.934,-119.141,0.000
1732270588.851,168.457,233.398,99.609,35.156,0.000
1732270588.855,133.301,992.676,509.766,184.082,0.000
1732270588.859,176.758,966.309,393.066,197.754,0.000
1732270588.863,247.559,826.172,223.633,-1.953,0.000
1732270588.866,296.875,726.074,157.227,-163.574,0.000
1732270588.871,265.625,886.230,337.891,-4.395,0.000
1732270588.874,240.234,964.355,395.508,221.191,0.000
1732270588.878,231.934,963.867,378.906,240.723,0.000
1732270588.882,269.531,918.457,300.781,35.156,0.000
1732270588.886,324.219,723.633,73.730,-119.629,0.000
1732270588.890,304.199,417.969,34.180,26.855,0.000
1732270588.894,258.301,617.676,293.457,220.215,0.000
1732270588.898,210.449,-979.004,482.910,224.609,0.000
1732270588.902,236.328,955.078,288.574,35.645,0.000
1732270588.905,304.688,404.785,-118.652,-124.023,0.000
1732270588.909,271.484,498.535,57.617,-34.668,0.000
1732270588.913,216.309,-979.980,461.426,175.293,0.000
1732270588.917,207.031,971.191,410.156,261.230,0.000
1732270588.921,226.562,889.648,224.609,72.754,0.000
1732270588.925,273.926,748.047,0.977,-152.832,0.000
1732270588.929,264.648,808.594,49.316,-98.633,0.000
1732270588.933,186.523,951.660,295.898,146.973,0.000
1732270588.937,191.406,952.148,361.816,270.508,0.000
1732270588.941,248.047,947.266,289.551,88.379,0.000
1732270588.945,305.664,795.410,64.453,-146.973,0.000
1732270588.948,408.691,657.715,-70.801,-100.586,0.000
1732270588.952,404.297,747.070,183.594,122.070,0.000
1732270588.956,331.543,955.078,439.941,212.402,0.000
1732270588.960,382.324,-964.844,322.754,96.191,0.000
1732270588.964,449.707,617.188,-126.465,-103.516,0.000
1732270588.968,453.125,533.203,-186.035,-124.512,0.000
1732270588.972,440.918,972.656,300.293,62.500,0.000
1732270588.976,444.824,982.910,417.969,200.684,0.000
1732270588.980,364.258,927.246,273.926,117.676,0.000
1732270588.984,279.785,598.145,-69.824,-102.539,0.000
1732270588.988,319.336,524.414,-206.055,-184.570,0.000
1732270588.992,331.543,957.031,206.055,5.371,0.000
1732270588.995,268.555,814.941,229.492,238.770,0.000
1732270588.999,146.484,705.078,108.887,176.270,0.000
1732270589.003,38.574,987.793,105.469,-120.117,0.000
1732270589.007,7.812,879.883,-213.379,-194.824,0.000
1732270589.011,-25.879,855.469,-95.703,10.742,0.000
1732270589.015,-54.199,960.938,309.570,166.992,0.000
1732270589.019,-62.500,-991.699,303.223,146.973,0.000
1732270589.023,-47.852,824.707,-158.203,-53.223,0.000
1732270589.027,-11.230,454.590,-383.301,-211.914,0.000
1732270589.031,40.527,645.508,-132.812,-79.102,0.000
1732270589.035,125.977,965.820,222.168,118.652,0.000
1732270589.038,215.820,-996.582,287.109,164.551,0.000
1732270589.042,309.570,593.262,-169.434,-34.180,0.000
1732270589.046,415.527,437.012,-357.910,-229.980,0.000
1732270589.050,527.832,842.773,-23.438,-71.777,0.000
1732270589.054,632.812,903.320,207.520,206.543,0.000
1732270589.058,653.809,864.258,265.625,247.559,0.000
1732270589.062,604.004,855.957,168.945,9.277,0.000
1732270589.066,570.312,554.199,-145.996,-147.461,0.000
1732270589.070,569.336,387.207,-144.043,-28.809,0.000
1732270589.074,574.707,684.570,171.875,191.895,0.000
1732270589.078,558.594,-977.051,414.062,267.090,0.000
1732270589.082,515.137,835.449,158.691,84.961,0.000
1732270589.086,446.777,7.324,-351.074,-87.891,0.000
1732270589.090,387.207,76.660,-164.551,-57.617,0.000
1732270589.093,346.680,909.180,366.211,136.230,0.000
1732270589.097,284.668,-984.863,420.410,284.180,0.000
1732270589.101,168.457,752.930,126.953,129.883,0.000
1732270589.105,51.758,431.641,-169.434,-105.469,0.000
1732270589.109,34.668,560.547,-47.363,-71.777,0.000
1732270589.113,88.379,857.910,265.137,176.270,0.000
1732270589.117,60.059,833.984,329.590,292.969,0.000
1732270589.121,3.906,854.980,241.699,123.047,0.000
1732270589.125,-12.207,456.543,-132.324,-91.309,0.000
1732270589.129,-32.227,-64.941,-343.750,-88.867,0.000
1732270589.132,-8.301,221.191,51.270,139.648,0.000
1732270589.136,-6.348,821.777,402.344,275.391,0.000
1732270589.140,-90.332,-973.145,389.648,133.789,0.000
1732270589.144,-165.039,328.613,-75.684,-63.477,0.000
1732270589.148,-187.012,-237.305,-300.781,-107.422,0.000
1732270589.152,0.000,403.809,211.426,57.129,0.000
1732270589.156,0.000,-969.238,460.938,225.586,0.000
1732270589.160,0.000,626.953,201.172,202.637,0.000
1732270589.164,0.000,-108.887,-190.918,-40.039,0.000
1732270589.168,0.000,-151.367,-228.027,-194.336,0.000
1732270589.172,0.000,86.914,52.734,14.648,0.000
1732270589.176,0.000,223.633,256.836,234.375,0.000
1732270589.180,0.000,-50.293,146.973,195.312,0.000
1732270589.183,0.000,107.422,106.445,-96.191,0.000
1732270589.187,0.000,90.820,-67.383,-194.824,0.000
1732270589.191,0.000,35.645,20.020,-4.395,0.000
1732270589.195,0.000,645.996,354.980,164.551,0.000
1732270589.199,-672.363,-957.520,411.621,170.898,0.000
1732270589.203,-685.059,540.039,82.520,-41.504,0.000
1732270589.207,-672.363,-192.383,-290.527,-193.848,0.000
1732270589.211,-628.418,77.637,-8.789,-69.824,0.000
1732270589.215,-523.438,691.406,365.723,153.320,0.000
1732270589.219,-459.473,724.121,348.633,202.637,0.000
1732270589.223,-462.891,165.039,-11.719,-14.648,0.000
1732270589.227,-423.828,-289.551,-297.852,-207.520,0.000
1732270589.231,-350.098,77.637,16.113,-114.258,0.000
1732270589.234,-268.066,482.910,320.801,146.973,0.000
1732270589.238,-244.629,342.773,339.844,232.910,0.000
1732270589.242,-330.566,325.684,281.738,-11.719,0.000
1732270589.246,-381.348,4.883,-26.855,-194.336,0.000
1732270589.250,-321.777,-276.367,-49.805,-101.074,0.000
1732270589.254,-272.461,345.215,339.355,108.398,0.000
1732270589.258,-305.176,995.605,478.516,201.172,0.000
1732270589.262,-379.395,769.043,321.289,49.316,0.000
1732270589.266,-445.801,-40.039,-70.312,-152.344,0.000
1732270589.270,-451.172,-227.051,-69.824,-152.344,0.000
1732270589.273,-458.984,548.828,391.602,42.969,0.000
1732270589.277,-504.395,-949.219,493.164,188.477,0.000
1732270589.281,-568.848,585.449,248.047,60.547,0.000
1732270589.285,-646.484,122.070,59.082,-189.941,0.000
1732270589.289,-611.328,220.703,209.473,-212.891,0.000
1732270589.293,-539.062,686.035,424.805,13.184,0.000
1732270589.297,-489.746,666.016,383.301,210.449,0.000
1732270589.301,-496.582,433.105,312.012,75.684,0.000
1732270589.305,-558.105,434.082,195.312,-203.125,0.000
1732270589.309,-534.668,235.840,138.672,-235.840,0.000
1732270589.313,-472.168,388.672,333.984,-25.879,0.000
1732270589.316,-427.734,808.594,422.852,152.832,0.000
1732270589.320,-419.434,-988.770,425.293,70.312,0.000
1732270589.324,-418.945,537.109,129.883,-163.086,0.000
1732270589.328,-345.215,-8.789,-107.422,-238.281,0.000
1732270589.332,-285.156,597.656,321.777,-80.078,0.000
1732270589.336,-224.121,-954.590,497.070,100.586,0.000
1732270589.340,-197.266,885.742,338.379,82.520,0.000
1732270589.344,-225.586,686.523,178.223,-113.281,0.000
1732270589.348,-250.000,531.738,90.820,-248.047,0.000
1732270589.352,-245.605,744.629,301.758,-90.820,0.000
1732270589.356,-242.676,939.453,413.086,140.625,0.000
1732270589.360,-319.336,974.121,363.281,133.789,0.000
1732270589.363,-423.340,714.355,165.527,-114.746,0.000
1732270589.367,-482.910,527.832,16.602,-265.137,0.000
1732270589.371,-427.734,460.449,166.016,-61.035,0.000
1732270589.375,-379.883,570.312,342.773,151.367,0.000
1732270589.379,-457.031,-960.938,488.281,136.230,0.000
1732270589.383,-466.797,825.684,204.590,-40.527,0.000
1732270589.387,-431.641,516.602,-39.062,-211.426,0.000
1732270589.391,-407.715,789.062,250.488,-111.816,0.000
1732270589.395,-373.535,991.211,454.590,108.398,0.000
1732270589.399,-386.719,976.562,402.832,167.969,0.000
1732270589.403,-367.188,863.770,234.863,-14.648,0.000
1732270589.406,-291.992,464.844,-57.129,-196.777,0.000
1732270589.410,-229.492,513.184,56.152,-131.348,0.000
1732270589.414,-125.977,882.324,363.770,107.422,0.000
1732270589.418,-57.617,843.262,389.648,214.844,0.000
1732270589.422,-86.914,898.926,312.500,-27.344,0.000
1732270589.426,-58.594,906.250,111.816,-240.723,0.000
1732270589.430,44.434,695.312,-0.977,-145.996,0.000
1732270589.434,136.230,791.504,228.027,89.844,0.000
1732270589.438,164.062,984.863,447.266,214.355,0.000
1732270589.442,152.832,-1000.000,312.500,70.312,0.000
1732270589.446,102.539,565.430,-140.625,-154.297,0.000
1732270589.449,145.020,388.672,-195.312,-101.074,0.000
1732270589.453,263.184,795.410,249.023,154.297,0.000
1732270589.457,296.387,-955.566,421.387,241.211,0.000
1732270589.461,302.246,701.172,112.305,159.668,0.000
1732270589.465,238.770,190.430,-293.945,-62.988,0.000
1732270589.469,228.516,524.414,-159.668,-153.809,0.000
1732270589.473,348.145,875.977,148.438,89.355,0.000
1732270589.477,385.254,958.496,324.707,252.441,0.000
1732270589.481,299.805,986.816,268.066,143.555,0.000
1732270589.485,178.223,791.016,-132.812,-83.984,0.000
1732270589.488,165.039,423.828,-440.430,-124.023,0.000
1732270589.492,233.887,574.219,-204.102,102.539,0.000
1732270589.496,295.410,954.590,230.957,258.789,0.000
1732270589.500,289.062,963.379,126.465,214.844,0.000
1732270589.504,205.566,513.184,-363.281,7.324,0.000
1732270589.508,142.090,-186.523,-516.113,-102.539,0.000
1732270589.512,167.969,345.215,-125.977,43.945,0.000
1732270589.516,242.188,-958.008,290.527,231.445,0.000
1732270589.520,242.188,915.039,164.062,232.422,0.000
1732270589.523,152.832,661.621,-285.645,7.812,0.000
1732270589.528,135.742,405.273,-456.055,-139.160,0.000
1732270589.531,235.840,426.270,-307.129,46.875,0.000
1732270589.535,306.641,645.996,-93.750,277.344,0.000
1732270589.539,270.020,908.203,99.609,248.535,0.000
1732270589.543,227.539,785.156,-119.141,17.578,0.000
1732270589.547,266.113,223.145,-436.035,-116.211,0.000
1732270589.551,366.699,-90.820,-441.406,26.855,0.000
1732270589.555,397.461,319.824,-133.789,235.840,0.000
1732270589.559,308.594,-970.703,321.289,260.254,0.000
1732270589.562,234.375,842.773,-43.457,76.660,0.000
1732270589.566,206.543,224.609,-461.426,-76.172,0.000
1732270589.570,201.172,302.734,-318.848,7.324,0.000
1732270589.574,192.871,844.727,89.844,188.965,0.000
1732270589.578,152.832,950.195,196.289,279.297,0.000
1732270589.582,79.590,636.230,-208.984,95.703,0.000
1732270589.586,28.809,181.152,-443.848,-121.094,0.000
1732270589.590,33.203,105.469,-377.930,-72.266,0.000
1732270589.594,69.336,527.832,-118.652,132.812,0.000
1732270589.598,58.105,504.883,-58.594,264.160,0.000
1732270589.602,4.395,333.984,-194.336,99.121,0.000
1732270589.605,-28.809,368.164,-300.293,-134.277,0.000
1732270589.609,18.555,217.285,-372.559,-99.609,0.000
1732270589.613,90.820,479.492,-95.703,106.934,0.000
1732270589.617,95.215,978.516,311.523,208.496,0.000
1732270589.621,76.660,943.359,170.410,88.379,0.000
1732270589.625,68.848,303.711,-296.875,-110.840,0.000
1732270589.629,112.793,2.441,-407.227,-141.602,0.000
1732270589.633,178.223,572.266,-30.273,47.852,0.000
1732270589.637,183.105,-981.445,312.988,204.102,0.000
1732270589.641,152.344,520.020,-49.316,140.625,0.000
1732270589.644,125.488,-225.586,-481.934,-111.328,0.000
1732270589.648,134.277,37.598,-326.172,-242.188,0.000
1732270589.652,199.707,651.367,32.227,-41.016,0.000
1732270589.656,208.008,904.785,254.395,142.578,0.000
1732270589.660,126.465,920.898,218.262,56.152,0.000
1732270589.664,80.566,614.746,-125.977,-177.246,0.000
1732270589.668,114.746,171.387,-424.316,-256.348,0.000
1732270589.672,127.930,371.582,-160.645,-91.797,0.000
1732270589.676,132.812,860.840,237.793,104.980,0.000
1732270589.680,111.816,-975.586,290.039,111.816,0.000
1732270589.684,60.059,588.867,-121.094,-89.355,0.000
1732270589.688,38.086,-54.688,-439.941,-199.707,0.000
1732270589.691,13.184,117.188,-201.172,-67.383,0.000
1732270589.695,-6.348,735.352,218.262,121.094,0.000
1732270589.699,-40.527,951.660,332.031,150.391,0.000
1732270589.703,-94.727,379.395,-93.750,-39.062,0.000
1732270589.707,-125.000,162.598,-228.516,-212.402,0.000
1732270589.711,-69.824,549.805,75.195,-73.242,0.000
1732270589.715,-9.766,793.945,275.391,167.480,0.000
1732270589.719,-50.293,913.086,338.379,204.102,0.000
1732270589.723,-123.535,820.801,192.871,-14.160,0.000
1732270589.727,-129.395,437.012,-116.211,-180.176,0.000
1732270589.731,-75.195,201.172,-130.371,-56.152,0.000
1732270589.734,-19.531,462.402,178.711,172.852,0.000
1732270589.738,-45.898,919.434,395.508,231.445,0.000
1732270589.742,-101.074,936.035,325.195,36.133,0.000
1732270589.746,-97.168,22.461,-192.383,-106.934,0.000
1732270589.750,-73.730,-246.582,-194.824,-51.758,0.000
1732270589.754,-24.414,759.766,415.527,125.488,0.000
1732270589.758,-6.836,972.656,423.828,259.277,0.000
